# E (eV) pdos(E) 
  0.758  0.000E+00
  0.768  0.000E+00
  0.778  0.000E+00
  0.788  0.000E+00
  0.798  0.000E+00
  0.808  0.000E+00
  0.818  0.000E+00
  0.828  0.000E+00
  0.838  0.000E+00
  0.848  0.000E+00
  0.858  0.000E+00
  0.868  0.000E+00
  0.878  0.000E+00
  0.888  0.000E+00
  0.898  0.000E+00
  0.908  0.000E+00
  0.918  0.000E+00
  0.928  0.000E+00
  0.938  0.000E+00
  0.948  0.000E+00
  0.958  0.000E+00
  0.968  0.000E+00
  0.978  0.000E+00
  0.988  0.000E+00
  0.998  0.000E+00
  1.008  0.000E+00
  1.018  0.000E+00
  1.028  0.000E+00
  1.038  0.000E+00
  1.048  0.000E+00
  1.058  0.000E+00
  1.068  0.000E+00
  1.078  0.000E+00
  1.088  0.000E+00
  1.098  0.000E+00
  1.108  0.000E+00
  1.118  0.000E+00
  1.128  0.000E+00
  1.138  0.000E+00
  1.148  0.000E+00
  1.158  0.000E+00
  1.168  0.000E+00
  1.178  0.000E+00
  1.188  0.000E+00
  1.198  0.000E+00
  1.208  0.000E+00
  1.218  0.000E+00
  1.228  0.000E+00
  1.238  0.000E+00
  1.248  0.000E+00
  1.258  0.000E+00
  1.268  0.000E+00
  1.278  0.000E+00
  1.288  0.000E+00
  1.298  0.000E+00
  1.308  0.000E+00
  1.318  0.000E+00
  1.328  0.000E+00
  1.338  0.000E+00
  1.348  0.000E+00
  1.358  0.000E+00
  1.368  0.000E+00
  1.378  0.000E+00
  1.388  0.000E+00
  1.398  0.000E+00
  1.408  0.000E+00
  1.418  0.000E+00
  1.428  0.000E+00
  1.438  0.000E+00
  1.448  0.000E+00
  1.458  0.000E+00
  1.468  0.000E+00
  1.478  0.000E+00
  1.488  0.000E+00
  1.498  0.000E+00
  1.508  0.000E+00
  1.518  0.000E+00
  1.528  0.000E+00
  1.538  0.000E+00
  1.548  0.000E+00
  1.558  0.000E+00
  1.568  0.000E+00
  1.578  0.000E+00
  1.588  0.000E+00
  1.598  0.000E+00
  1.608  0.000E+00
  1.618  0.000E+00
  1.628  0.000E+00
  1.638  0.000E+00
  1.648  0.000E+00
  1.658  0.000E+00
  1.668  0.000E+00
  1.678  0.000E+00
  1.688  0.000E+00
  1.698  0.000E+00
  1.708  0.000E+00
  1.718  0.000E+00
  1.728  0.000E+00
  1.738  0.000E+00
  1.748  0.000E+00
  1.758  0.000E+00
  1.768  0.000E+00
  1.778  0.000E+00
  1.788  0.000E+00
  1.798  0.000E+00
  1.808  0.000E+00
  1.818  0.000E+00
  1.828  0.000E+00
  1.838  0.000E+00
  1.848  0.000E+00
  1.858  0.000E+00
  1.868  0.000E+00
  1.878  0.000E+00
  1.888  0.000E+00
  1.898  0.000E+00
  1.908  0.000E+00
  1.918  0.000E+00
  1.928  0.000E+00
  1.938  0.000E+00
  1.948  0.000E+00
  1.958  0.000E+00
  1.968  0.000E+00
  1.978  0.000E+00
  1.988  0.000E+00
  1.998  0.000E+00
  2.008  0.000E+00
  2.018  0.000E+00
  2.028  0.000E+00
  2.038  0.000E+00
  2.048  0.000E+00
  2.058  0.000E+00
  2.068  0.000E+00
  2.078  0.000E+00
  2.088  0.000E+00
  2.098  0.000E+00
  2.108  0.000E+00
  2.118  0.000E+00
  2.128  0.000E+00
  2.138  0.000E+00
  2.148  0.000E+00
  2.158  0.000E+00
  2.168  0.000E+00
  2.178  0.000E+00
  2.188  0.000E+00
  2.198  0.000E+00
  2.208  0.000E+00
  2.218  0.000E+00
  2.228  0.000E+00
  2.238  0.000E+00
  2.248  0.000E+00
  2.258  0.000E+00
  2.268  0.000E+00
  2.278  0.000E+00
  2.288  0.000E+00
  2.298  0.000E+00
  2.308  0.000E+00
  2.318  0.000E+00
  2.328  0.000E+00
  2.338  0.000E+00
  2.348  0.000E+00
  2.358  0.000E+00
  2.368  0.000E+00
  2.378  0.000E+00
  2.388  0.000E+00
  2.398  0.000E+00
  2.408  0.000E+00
  2.418  0.000E+00
  2.428  0.000E+00
  2.438  0.000E+00
  2.448  0.366E-14
  2.458  0.612E-11
  2.468  0.346E-08
  2.478  0.664E-06
  2.488  0.436E-04
  2.498  0.964E-03
  2.508  0.724E-02
  2.518  0.185E-01
  2.528  0.167E-01
  2.538  0.161E-01
  2.548  0.760E-01
  2.558  0.190E+00
  2.568  0.217E+00
  2.578  0.132E+00
  2.588  0.380E-01
  2.598  0.140E-01
  2.608  0.790E-01
  2.618  0.214E+00
  2.628  0.199E+00
  2.638  0.109E+00
  2.648  0.273E+00
  2.658  0.544E+00
  2.668  0.446E+00
  2.678  0.167E+00
  2.688  0.292E-01
  2.698  0.135E-01
  2.708  0.624E-01
  2.718  0.118E+00
  2.728  0.111E+00
  2.738  0.260E+00
  2.748  0.608E+00
  2.758  0.726E+00
  2.768  0.457E+00
  2.778  0.140E+00
  2.788  0.134E+00
  2.798  0.384E+00
  2.808  0.419E+00
  2.818  0.237E+00
  2.828  0.367E+00
  2.838  0.569E+00
  2.848  0.355E+00
  2.858  0.836E-01
  2.868  0.374E-01
  2.878  0.143E+00
  2.888  0.233E+00
  2.898  0.263E+00
  2.908  0.758E+00
  2.918  0.134E+01
  2.928  0.911E+00
  2.938  0.290E+00
  2.948  0.845E-01
  2.958  0.205E+00
  2.968  0.559E+00
  2.978  0.735E+00
  2.988  0.591E+00
  2.998  0.535E+00
  3.008  0.512E+00
  3.018  0.280E+00
  3.028  0.800E-01
  3.038  0.393E-01
  3.048  0.210E+00
  3.058  0.635E+00
  3.068  0.104E+01
  3.078  0.110E+01
  3.088  0.121E+01
  3.098  0.131E+01
  3.108  0.659E+00
  3.118  0.309E+00
  3.128  0.770E+00
  3.138  0.127E+01
  3.148  0.110E+01
  3.158  0.730E+00
  3.168  0.739E+00
  3.178  0.723E+00
  3.188  0.556E+00
  3.198  0.748E+00
  3.208  0.965E+00
  3.218  0.125E+01
  3.228  0.203E+01
  3.238  0.252E+01
  3.248  0.182E+01
  3.258  0.909E+00
  3.268  0.727E+00
  3.278  0.100E+01
  3.288  0.140E+01
  3.298  0.141E+01
  3.308  0.104E+01
  3.318  0.871E+00
  3.328  0.664E+00
  3.338  0.744E+00
  3.348  0.129E+01
  3.358  0.174E+01
  3.368  0.184E+01
  3.378  0.137E+01
  3.388  0.906E+00
  3.398  0.756E+00
  3.408  0.645E+00
  3.418  0.743E+00
  3.428  0.146E+01
  3.438  0.211E+01
  3.448  0.167E+01
  3.458  0.117E+01
  3.468  0.117E+01
  3.478  0.984E+00
  3.488  0.733E+00
  3.498  0.112E+01
  3.508  0.148E+01
  3.518  0.120E+01
  3.528  0.700E+00
  3.538  0.707E+00
  3.548  0.102E+01
  3.558  0.932E+00
  3.568  0.763E+00
  3.578  0.841E+00
  3.588  0.977E+00
  3.598  0.150E+01
  3.608  0.188E+01
  3.618  0.136E+01
  3.628  0.104E+01
  3.638  0.980E+00
  3.648  0.886E+00
  3.658  0.916E+00
  3.668  0.964E+00
  3.678  0.983E+00
  3.688  0.135E+01
  3.698  0.182E+01
  3.708  0.205E+01
  3.718  0.204E+01
  3.728  0.163E+01
  3.738  0.830E+00
  3.748  0.522E+00
  3.758  0.832E+00
  3.768  0.103E+01
  3.778  0.105E+01
  3.788  0.123E+01
  3.798  0.172E+01
  3.808  0.185E+01
  3.818  0.136E+01
  3.828  0.855E+00
  3.838  0.952E+00
  3.848  0.162E+01
  3.858  0.238E+01
  3.868  0.243E+01
  3.878  0.201E+01
  3.888  0.127E+01
  3.898  0.791E+00
  3.908  0.126E+01
  3.918  0.208E+01
  3.928  0.260E+01
  3.938  0.297E+01
  3.948  0.219E+01
  3.958  0.153E+01
  3.968  0.203E+01
  3.978  0.194E+01
  3.988  0.169E+01
  3.998  0.240E+01
  4.008  0.292E+01
  4.018  0.289E+01
  4.028  0.323E+01
  4.038  0.373E+01
  4.048  0.359E+01
  4.058  0.286E+01
  4.068  0.286E+01
  4.078  0.286E+01
  4.088  0.228E+01
  4.098  0.188E+01
  4.108  0.193E+01
  4.118  0.219E+01
  4.128  0.229E+01
  4.138  0.222E+01
  4.148  0.250E+01
  4.158  0.299E+01
  4.168  0.388E+01
  4.178  0.438E+01
  4.188  0.418E+01
  4.198  0.357E+01
  4.208  0.267E+01
  4.218  0.256E+01
  4.228  0.341E+01
  4.238  0.396E+01
  4.248  0.354E+01
  4.258  0.246E+01
  4.268  0.163E+01
  4.278  0.196E+01
  4.288  0.215E+01
  4.298  0.196E+01
  4.308  0.238E+01
  4.318  0.309E+01
  4.328  0.327E+01
  4.338  0.273E+01
  4.348  0.193E+01
  4.358  0.230E+01
  4.368  0.318E+01
  4.378  0.374E+01
  4.388  0.403E+01
  4.398  0.300E+01
  4.408  0.241E+01
  4.418  0.349E+01
  4.428  0.499E+01
  4.438  0.585E+01
  4.448  0.602E+01
  4.458  0.561E+01
  4.468  0.533E+01
  4.478  0.540E+01
  4.488  0.582E+01
  4.498  0.579E+01
  4.508  0.534E+01
  4.518  0.570E+01
  4.528  0.568E+01
  4.538  0.474E+01
  4.548  0.383E+01
  4.558  0.345E+01
  4.568  0.428E+01
  4.578  0.457E+01
  4.588  0.331E+01
  4.598  0.185E+01
  4.608  0.102E+01
  4.618  0.130E+01
  4.628  0.270E+01
  4.638  0.343E+01
  4.648  0.259E+01
  4.658  0.158E+01
  4.668  0.105E+01
  4.678  0.922E+00
  4.688  0.121E+01
  4.698  0.146E+01
  4.708  0.977E+00
  4.718  0.515E+00
  4.728  0.433E+00
  4.738  0.460E+00
  4.748  0.549E+00
  4.758  0.517E+00
  4.768  0.454E+00
  4.778  0.739E+00
  4.788  0.122E+01
  4.798  0.124E+01
  4.808  0.109E+01
  4.818  0.115E+01
  4.828  0.925E+00
  4.838  0.467E+00
  4.848  0.142E+00
  4.858  0.198E-01
  4.868  0.104E-02
  4.878  0.209E-04
  4.888  0.209E-03
  4.898  0.790E-02
  4.908  0.110E+00
  4.918  0.586E+00
  4.928  0.131E+01
  4.938  0.153E+01
  4.948  0.159E+01
  4.958  0.226E+01
  4.968  0.336E+01
  4.978  0.507E+01
  4.988  0.755E+01
  4.998  0.873E+01
  5.008  0.773E+01
  5.018  0.735E+01
  5.028  0.767E+01
  5.038  0.742E+01
  5.048  0.616E+01
  5.058  0.411E+01
  5.068  0.415E+01
  5.078  0.575E+01
  5.088  0.682E+01
  5.098  0.640E+01
  5.108  0.531E+01
  5.118  0.495E+01
  5.128  0.513E+01
  5.138  0.602E+01
  5.148  0.656E+01
  5.158  0.648E+01
  5.168  0.588E+01
  5.178  0.493E+01
  5.188  0.394E+01
  5.198  0.324E+01
  5.208  0.310E+01
  5.218  0.387E+01
  5.228  0.516E+01
  5.238  0.509E+01
  5.248  0.349E+01
  5.258  0.159E+01
  5.268  0.103E+01
  5.278  0.131E+01
  5.288  0.978E+00
  5.298  0.497E+00
  5.308  0.389E+00
  5.318  0.479E+00
  5.328  0.900E+00
  5.338  0.140E+01
  5.348  0.174E+01
  5.358  0.144E+01
  5.368  0.774E+00
  5.378  0.707E+00
  5.388  0.154E+01
  5.398  0.237E+01
  5.408  0.227E+01
  5.418  0.167E+01
  5.428  0.161E+01
  5.438  0.179E+01
  5.448  0.183E+01
  5.458  0.167E+01
  5.468  0.139E+01
  5.478  0.139E+01
  5.488  0.124E+01
  5.498  0.697E+00
  5.508  0.646E+00
  5.518  0.116E+01
  5.528  0.161E+01
  5.538  0.168E+01
  5.548  0.167E+01
  5.558  0.202E+01
  5.568  0.196E+01
  5.578  0.180E+01
  5.588  0.233E+01
  5.598  0.298E+01
  5.608  0.248E+01
  5.618  0.201E+01
  5.628  0.189E+01
  5.638  0.146E+01
  5.648  0.132E+01
  5.658  0.167E+01
  5.668  0.204E+01
  5.678  0.193E+01
  5.688  0.168E+01
  5.698  0.203E+01
  5.708  0.235E+01
  5.718  0.219E+01
  5.728  0.168E+01
  5.738  0.123E+01
  5.748  0.102E+01
  5.758  0.111E+01
  5.768  0.137E+01
  5.778  0.132E+01
  5.788  0.127E+01
  5.798  0.129E+01
  5.808  0.956E+00
  5.818  0.840E+00
  5.828  0.113E+01
  5.838  0.112E+01
  5.848  0.110E+01
  5.858  0.944E+00
  5.868  0.708E+00
  5.878  0.853E+00
  5.888  0.106E+01
  5.898  0.117E+01
  5.908  0.127E+01
  5.918  0.118E+01
  5.928  0.882E+00
  5.938  0.864E+00
  5.948  0.122E+01
  5.958  0.123E+01
  5.968  0.126E+01
  5.978  0.164E+01
  5.988  0.204E+01
  5.998  0.250E+01
  6.008  0.214E+01
  6.018  0.159E+01
  6.028  0.144E+01
  6.038  0.111E+01
  6.048  0.687E+00
  6.058  0.426E+00
  6.068  0.429E+00
  6.078  0.658E+00
  6.088  0.703E+00
  6.098  0.768E+00
  6.108  0.112E+01
  6.118  0.147E+01
  6.128  0.131E+01
  6.138  0.867E+00
  6.148  0.973E+00
  6.158  0.138E+01
  6.168  0.165E+01
  6.178  0.165E+01
  6.188  0.128E+01
  6.198  0.129E+01
  6.208  0.150E+01
  6.218  0.132E+01
  6.228  0.114E+01
  6.238  0.115E+01
  6.248  0.102E+01
  6.258  0.903E+00
  6.268  0.960E+00
  6.278  0.107E+01
  6.288  0.136E+01
  6.298  0.158E+01
  6.308  0.138E+01
  6.318  0.109E+01
  6.328  0.102E+01
  6.338  0.815E+00
  6.348  0.632E+00
  6.358  0.525E+00
  6.368  0.511E+00
  6.378  0.456E+00
  6.388  0.576E+00
  6.398  0.778E+00
  6.408  0.869E+00
  6.418  0.859E+00
  6.428  0.794E+00
  6.438  0.846E+00
  6.448  0.868E+00
  6.458  0.828E+00
  6.468  0.875E+00
  6.478  0.836E+00
  6.488  0.809E+00
  6.498  0.715E+00
  6.508  0.480E+00
  6.518  0.386E+00
  6.528  0.683E+00
  6.538  0.894E+00
  6.548  0.863E+00
  6.558  0.810E+00
  6.568  0.798E+00
  6.578  0.699E+00
  6.588  0.683E+00
  6.598  0.728E+00
  6.608  0.668E+00
  6.618  0.731E+00
  6.628  0.630E+00
  6.638  0.621E+00
  6.648  0.897E+00
  6.658  0.945E+00
  6.668  0.866E+00
  6.678  0.998E+00
  6.688  0.121E+01
  6.698  0.132E+01
  6.708  0.149E+01
  6.718  0.176E+01
  6.728  0.161E+01
  6.738  0.142E+01
  6.748  0.132E+01
  6.758  0.107E+01
  6.768  0.888E+00
  6.778  0.754E+00
  6.788  0.558E+00
  6.798  0.471E+00
  6.808  0.616E+00
  6.818  0.681E+00
  6.828  0.550E+00
  6.838  0.671E+00
  6.848  0.822E+00
  6.858  0.802E+00
  6.868  0.808E+00
  6.878  0.620E+00
  6.888  0.460E+00
  6.898  0.357E+00
  6.908  0.208E+00
  6.918  0.167E+00
  6.928  0.253E+00
  6.938  0.355E+00
  6.948  0.404E+00
  6.958  0.426E+00
  6.968  0.372E+00
  6.978  0.430E+00
  6.988  0.438E+00
  6.998  0.243E+00
  7.008  0.171E+00
  7.018  0.266E+00
  7.028  0.284E+00
  7.038  0.230E+00
  7.048  0.262E+00
  7.058  0.254E+00
  7.068  0.191E+00
  7.078  0.202E+00
  7.088  0.185E+00
  7.098  0.208E+00
  7.108  0.224E+00
  7.118  0.263E+00
  7.128  0.352E+00
  7.138  0.387E+00
  7.148  0.298E+00
  7.158  0.245E+00
  7.168  0.262E+00
  7.178  0.235E+00
  7.188  0.197E+00
  7.198  0.247E+00
  7.208  0.378E+00
  7.218  0.468E+00
  7.228  0.425E+00
  7.238  0.354E+00
  7.248  0.319E+00
  7.258  0.322E+00
  7.268  0.334E+00
  7.278  0.257E+00
  7.288  0.234E+00
  7.298  0.333E+00
  7.308  0.308E+00
  7.318  0.174E+00
  7.328  0.225E+00
  7.338  0.413E+00
  7.348  0.429E+00
  7.358  0.220E+00
  7.368  0.118E+00
  7.378  0.161E+00
  7.388  0.216E+00
  7.398  0.253E+00
  7.408  0.231E+00
  7.418  0.116E+00
  7.428  0.654E-01
  7.438  0.118E+00
  7.448  0.177E+00
  7.458  0.172E+00
  7.468  0.100E+00
  7.478  0.626E-01
  7.488  0.686E-01
  7.498  0.750E-01
  7.508  0.482E-01
  7.518  0.198E-01
  7.528  0.179E-01
  7.538  0.207E-01
  7.548  0.115E-01
  7.558  0.265E-02
  7.568  0.240E-03
  7.578  0.798E-05
  7.588  0.934E-07
  7.598  0.377E-09
  7.608  0.521E-12
  7.618  0.557E-27
  7.628  0.642E-30
  7.638  0.000E+00
  7.648  0.000E+00
  7.658  0.000E+00
  7.668  0.000E+00
  7.678  0.000E+00
  7.688  0.000E+00
  7.698  0.000E+00
  7.708  0.000E+00
  7.718  0.000E+00
  7.728  0.000E+00
  7.738  0.000E+00
  7.748  0.000E+00
  7.758  0.000E+00
  7.768  0.000E+00
  7.778  0.000E+00
  7.788  0.000E+00
  7.798  0.000E+00
  7.808  0.000E+00
  7.818  0.000E+00
  7.828  0.000E+00
  7.838  0.000E+00
  7.848  0.000E+00
  7.858  0.000E+00
  7.868  0.000E+00
  7.878  0.000E+00
  7.888  0.000E+00
  7.898  0.000E+00
  7.908  0.000E+00
  7.918  0.000E+00
  7.928  0.000E+00
  7.938  0.000E+00
  7.948  0.000E+00
  7.958  0.000E+00
  7.968  0.000E+00
  7.978  0.000E+00
  7.988  0.000E+00
  7.998  0.000E+00
  8.008  0.000E+00
  8.018  0.000E+00
  8.028  0.000E+00
  8.038  0.000E+00
  8.048  0.000E+00
  8.058  0.000E+00
  8.068  0.000E+00
  8.078  0.000E+00
  8.088  0.000E+00
  8.098  0.000E+00
  8.108  0.000E+00
  8.118  0.000E+00
  8.128  0.000E+00
  8.138  0.000E+00
  8.148  0.000E+00
  8.158  0.000E+00
  8.168  0.000E+00
  8.178  0.000E+00
  8.188  0.000E+00
  8.198  0.000E+00
  8.208  0.000E+00
  8.218  0.000E+00
  8.228  0.000E+00
  8.238  0.000E+00
  8.248  0.000E+00
  8.258  0.000E+00
  8.268  0.000E+00
  8.278  0.000E+00
  8.288  0.000E+00
  8.298  0.000E+00
  8.308  0.000E+00
  8.318  0.000E+00
  8.328  0.000E+00
  8.338  0.000E+00
  8.348  0.000E+00
  8.358  0.000E+00
  8.368  0.000E+00
  8.378  0.000E+00
  8.388  0.000E+00
  8.398  0.000E+00
  8.408  0.000E+00
  8.418  0.000E+00
  8.428  0.000E+00
  8.438  0.000E+00
  8.448  0.000E+00
  8.458  0.000E+00
  8.468  0.000E+00
  8.478  0.000E+00
  8.488  0.000E+00
  8.498  0.000E+00
  8.508  0.000E+00
  8.518  0.000E+00
  8.528  0.000E+00
  8.538  0.000E+00
  8.548  0.000E+00
  8.558  0.000E+00
  8.568  0.000E+00
  8.578  0.000E+00
  8.588  0.000E+00
  8.598  0.000E+00
  8.608  0.000E+00
  8.618  0.000E+00
  8.628  0.000E+00
  8.638  0.000E+00
  8.648  0.000E+00
  8.658  0.000E+00
  8.668  0.000E+00
  8.678  0.000E+00
  8.688  0.000E+00
  8.698  0.000E+00
  8.708  0.000E+00
  8.718  0.000E+00
  8.728  0.000E+00
  8.738  0.000E+00
  8.748  0.000E+00
  8.758  0.000E+00
  8.768  0.000E+00
  8.778  0.000E+00
  8.788  0.000E+00
  8.798  0.000E+00
  8.808  0.000E+00
  8.818  0.000E+00
  8.828  0.000E+00
  8.838  0.000E+00
  8.848  0.000E+00
  8.858  0.000E+00
  8.868  0.000E+00
  8.878  0.000E+00
  8.888  0.000E+00
  8.898  0.000E+00
  8.908  0.000E+00
  8.918  0.000E+00
  8.928  0.000E+00
  8.938  0.000E+00
  8.948  0.000E+00
  8.958  0.000E+00
  8.968  0.000E+00
  8.978  0.000E+00
  8.988  0.000E+00
  8.998  0.000E+00
  9.008  0.000E+00
  9.018  0.000E+00
  9.028  0.000E+00
  9.038  0.000E+00
  9.048  0.000E+00
  9.058  0.000E+00
  9.068  0.000E+00
  9.078  0.000E+00
  9.088  0.000E+00
  9.098  0.000E+00
  9.108  0.000E+00
  9.118  0.000E+00
  9.128  0.000E+00
  9.138  0.000E+00
  9.148  0.000E+00
  9.158  0.000E+00
  9.168  0.000E+00
  9.178  0.000E+00
  9.188  0.000E+00
  9.198  0.000E+00
  9.208  0.000E+00
  9.218  0.000E+00
  9.228  0.000E+00
  9.238  0.000E+00
  9.248  0.000E+00
  9.258  0.000E+00
  9.268  0.000E+00
  9.278  0.000E+00
  9.288  0.000E+00
  9.298  0.000E+00
  9.308  0.000E+00
  9.318  0.000E+00
  9.328  0.000E+00
  9.338  0.000E+00
  9.348  0.000E+00
  9.358  0.000E+00
  9.368  0.000E+00
  9.378  0.000E+00
  9.388  0.000E+00
  9.398  0.000E+00
  9.408  0.000E+00
  9.418  0.117E-13
  9.428  0.212E-10
  9.438  0.131E-07
  9.448  0.275E-05
  9.458  0.195E-03
  9.468  0.472E-02
  9.478  0.387E-01
  9.488  0.108E+00
  9.498  0.102E+00
  9.508  0.326E-01
  9.518  0.370E-02
  9.528  0.704E-02
  9.538  0.107E+00
  9.548  0.583E+00
  9.558  0.116E+01
  9.568  0.926E+00
  9.578  0.422E+00
  9.588  0.363E+00
  9.598  0.293E+00
  9.608  0.892E-01
  9.618  0.113E-01
  9.628  0.411E-01
  9.638  0.302E+00
  9.648  0.866E+00
  9.658  0.114E+01
  9.668  0.836E+00
  9.678  0.816E+00
  9.688  0.135E+01
  9.698  0.101E+01
  9.708  0.539E+00
  9.718  0.123E+01
  9.728  0.209E+01
  9.738  0.161E+01
  9.748  0.728E+00
  9.758  0.277E+00
  9.768  0.591E-01
  9.778  0.480E-02
  9.788  0.132E-02
  9.798  0.362E-01
  9.808  0.401E+00
  9.818  0.175E+01
  9.828  0.337E+01
  9.838  0.314E+01
  9.848  0.143E+01
  9.858  0.418E+00
  9.868  0.887E+00
  9.878  0.265E+01
  9.888  0.345E+01
  9.898  0.206E+01
  9.908  0.118E+01
  9.918  0.199E+01
  9.928  0.190E+01
  9.938  0.652E+00
  9.948  0.126E+00
  9.958  0.217E+00
  9.968  0.326E+00
  9.978  0.258E+00
  9.988  0.650E+00
  9.998  0.222E+01
 10.008  0.471E+01
 10.018  0.578E+01
 10.028  0.490E+01
 10.038  0.284E+01
 10.048  0.108E+01
 10.058  0.209E+01
 10.068  0.480E+01
 10.078  0.434E+01
 10.088  0.285E+01
 10.098  0.351E+01
 10.108  0.246E+01
 10.118  0.617E+00
 10.128  0.643E-01
 10.138  0.169E+00
 10.148  0.100E+01
 10.158  0.272E+01
 10.168  0.491E+01
 10.178  0.738E+01
 10.188  0.863E+01
 10.198  0.816E+01
 10.208  0.621E+01
 10.218  0.594E+01
 10.228  0.746E+01
 10.238  0.712E+01
 10.248  0.506E+01
 10.258  0.413E+01
 10.268  0.475E+01
 10.278  0.522E+01
 10.288  0.392E+01
 10.298  0.281E+01
 10.308  0.368E+01
 10.318  0.563E+01
 10.328  0.891E+01
 10.338  0.103E+02
 10.348  0.925E+01
 10.358  0.965E+01
 10.368  0.846E+01
 10.378  0.620E+01
 10.388  0.474E+01
 10.398  0.547E+01
 10.408  0.545E+01
 10.418  0.418E+01
 10.428  0.423E+01
 10.438  0.442E+01
 10.448  0.420E+01
 10.458  0.347E+01
 10.468  0.547E+01
 10.478  0.951E+01
 10.488  0.801E+01
 10.498  0.454E+01
 10.508  0.260E+01
 10.518  0.132E+01
 10.528  0.157E+01
 10.538  0.366E+01
 10.548  0.680E+01
 10.558  0.791E+01
 10.568  0.645E+01
 10.578  0.502E+01
 10.588  0.520E+01
 10.598  0.714E+01
 10.608  0.812E+01
 10.618  0.607E+01
 10.628  0.619E+01
 10.638  0.924E+01
 10.648  0.103E+02
 10.658  0.106E+02
 10.668  0.125E+02
 10.678  0.125E+02
 10.688  0.105E+02
 10.698  0.844E+01
 10.708  0.932E+01
 10.718  0.127E+02
 10.728  0.166E+02
 10.738  0.166E+02
 10.748  0.137E+02
 10.758  0.131E+02
 10.768  0.123E+02
 10.778  0.111E+02
 10.788  0.126E+02
 10.798  0.193E+02
 10.808  0.251E+02
 10.818  0.250E+02
 10.828  0.234E+02
 10.838  0.194E+02
 10.848  0.137E+02
 10.858  0.141E+02
 10.868  0.189E+02
 10.878  0.201E+02
 10.888  0.200E+02
 10.898  0.206E+02
 10.908  0.189E+02
 10.918  0.160E+02
 10.928  0.194E+02
 10.938  0.221E+02
 10.948  0.180E+02
 10.958  0.144E+02
 10.968  0.119E+02
 10.978  0.953E+01
 10.988  0.111E+02
 10.998  0.143E+02
 11.008  0.133E+02
 11.018  0.957E+01
 11.028  0.676E+01
 11.038  0.660E+01
 11.048  0.888E+01
 11.058  0.917E+01
 11.068  0.835E+01
 11.078  0.736E+01
 11.088  0.580E+01
 11.098  0.757E+01
 11.108  0.119E+02
 11.118  0.166E+02
 11.128  0.197E+02
 11.138  0.176E+02
 11.148  0.118E+02
 11.158  0.109E+02
 11.168  0.151E+02
 11.178  0.171E+02
 11.188  0.152E+02
 11.198  0.149E+02
 11.208  0.133E+02
 11.218  0.927E+01
 11.228  0.683E+01
 11.238  0.708E+01
 11.248  0.111E+02
 11.258  0.108E+02
